Asteroid designations ( Number, Name, Temporary designation): 25916, 2001 CP44, 1973_GM
Observation was done on (UT) (format YYYY-MM-DD-hh): 2006 - 10 - 26 - 00:00
Observation was made by : Simone Ieva E-mail; simone.ieva@obspm.fr
At observatory with UAI code: 262
Obsv. comments: Ieva et al. (2013) in preparation
The spectrum was published in the article: http://www.oa-roma.inaf.it/planet/NEOSURFACE.html
The normalization of this spectrum was made for the wavelength: 0.550 microns.
Original name of the file was: CP44.txt
Wavelength[um]	Reflectance	sigma(optional)
0.4001 0.83334
0.4009 0.79116
0.4016 0.86332
0.4023 0.83401
0.4031 0.78543
0.4038 0.83401
0.4045 0.83324
0.4053 0.83324
0.4060 0.85385
0.4067 0.83334
0.4075 0.80922
0.4082 0.83334
0.4089 0.82564
0.4097 0.87990
0.4104 0.83334
0.4111 0.83334
0.4119 0.87812
0.4126 0.83324
0.4133 0.85834
0.4141 0.88148
0.4148 0.82851
0.4155 0.83324
0.4163 0.83324
0.4170 0.82851
0.4178 0.83324
0.4185 0.80100
0.4192 0.83838
0.4200 0.80562
0.4207 0.80562
0.4214 0.80271
0.4222 0.77476
0.4229 0.77215
0.4236 0.78916
0.4244 0.80191
0.4251 0.82206
0.4258 0.80376
0.4266 0.80271
0.4273 0.78256
0.4280 0.79935
0.4288 0.80376
0.4295 0.77555
0.4302 0.80271
0.4310 0.80376
0.4317 0.80554
0.4324 0.85780
0.4332 0.85436
0.4339 0.84787
0.4346 0.84787
0.4354 0.88439
0.4361 0.85745
0.4368 0.86371
0.4376 0.86783
0.4383 0.88143
0.4390 0.88143
0.4398 0.92574
0.4405 0.86783
0.4412 0.86371
0.4420 0.83454
0.4427 0.89781
0.4434 0.86783
0.4442 0.93227
0.4449 0.90572
0.4456 0.88903
0.4464 0.89241
0.4471 0.88038
0.4478 0.90081
0.4486 0.85338
0.4493 0.89964
0.4500 0.90900
0.4508 0.89972
0.4515 0.87218
0.4522 0.89241
0.4530 0.86881
0.4537 0.88080
0.4544 0.89110
0.4552 0.91415
0.4559 0.90415
0.4566 0.91128
0.4574 0.87336
0.4581 0.89125
0.4588 0.91235
0.4596 0.88422
0.4603 0.88080
0.4610 0.91492
0.4618 0.85934
0.4625 0.86991
0.4632 0.89125
0.4640 0.89125
0.4647 0.87492
0.4654 0.88508
0.4662 0.88589
0.4669 0.87212
0.4676 0.86327
0.4684 0.89627
0.4691 0.91306
0.4698 0.90293
0.4706 0.89692
0.4713 0.92093
0.4720 0.91144
0.4728 0.89370
0.4735 0.88197
0.4742 0.94503
0.4750 0.89765
0.4757 0.90535
0.4764 0.91082
0.4772 0.94506
0.4779 0.91673
0.4787 0.91893
0.4794 0.85902
0.4801 0.93127
0.4809 0.89341
0.4816 0.87380
0.4823 0.88950
0.4831 0.90553
0.4838 0.91154
0.4845 0.88211
0.4853 0.87067
0.4860 0.91371
0.4867 0.92407
0.4875 0.90956
0.4882 0.91154
0.4889 0.95817
0.4897 0.94700
0.4904 0.91371
0.4911 0.90956
0.4919 0.90376
0.4926 0.91501
0.4933 0.94503
0.4941 0.95617
0.4948 0.92115
0.4955 0.90227
0.4963 0.94924
0.4970 0.90044
0.4977 0.93241
0.4985 0.94432
0.4992 0.92984
0.4999 0.89202
0.5007 0.91678
0.5014 0.92939
0.5021 0.91720
0.5029 0.91197
0.5036 0.96081
0.5043 0.95795
0.5051 0.97989
0.5058 0.93107
0.5065 0.93107
0.5073 0.89093
0.5080 0.92038
0.5087 0.94617
0.5095 0.96356
0.5102 0.95957
0.5109 0.96488
0.5117 0.96976
0.5124 0.94090
0.5131 0.92339
0.5139 0.92589
0.5146 0.93126
0.5153 0.92590
0.5161 0.95988
0.5168 0.96119
0.5175 0.96798
0.5183 0.97719
0.5190 0.97856
0.5197 0.95988
0.5205 0.97112
0.5212 1.00725
0.5219 0.95718
0.5227 0.97544
0.5234 0.96119
0.5241 1.01908
0.5249 0.99159
0.5256 0.94008
0.5263 0.92976
0.5271 0.95588
0.5278 1.01189
0.5285 1.02808
0.5293 0.96369
0.5300 0.97856
0.5307 1.00538
0.5315 1.02971
0.5322 0.95571
0.5329 0.94862
0.5337 1.02090
0.5344 0.98058
0.5351 1.00872
0.5359 1.00622
0.5366 1.00627
0.5373 0.97457
0.5381 0.98058
0.5388 0.99999
0.5395 0.95337
0.5403 0.97027
0.5410 0.98322
0.5417 0.96770
0.5425 0.98794
0.5432 1.00012
0.5440 0.97730
0.5447 1.00431
0.5454 1.02021
0.5462 0.97917
0.5469 1.00716
0.5476 1.02156
0.5484 1.01505
0.5491 0.98317
0.5498 1.00000
0.5506 1.01908
0.5513 0.99884
0.5520 1.02819
0.5528 0.99497
0.5535 1.01459
0.5542 1.05254
0.5550 1.02285
0.5557 0.98786
0.5564 0.99692
0.5572 0.98383
0.5579 0.97571
0.5586 0.99754
0.5594 0.98061
0.5601 1.02720
0.5608 1.01560
0.5616 1.06027
0.5623 1.02211
0.5630 1.01139
0.5638 1.04374
0.5645 1.08092
0.5652 1.05301
0.5660 1.02348
0.5667 1.03057
0.5674 1.01719
0.5682 1.01560
0.5689 1.00645
0.5696 1.00228
0.5704 1.06350
0.5711 1.06184
0.5718 1.05187
0.5726 1.04499
0.5733 0.98335
0.5740 1.01039
0.5748 1.01130
0.5755 1.05262
0.5762 1.04529
0.5770 1.04982
0.5777 1.04316
0.5784 1.05796
0.5792 1.05556
0.5799 1.06254
0.5806 1.03169
0.5814 1.06629
0.5821 1.05904
0.5828 1.04295
0.5836 1.01101
0.5843 1.02183
0.5850 1.04504
0.5858 1.04656
0.5865 1.05765
0.5872 1.03051
0.5880 1.02055
0.5887 1.03588
0.5894 1.05602
0.5902 1.03828
0.5909 1.04252
0.5916 1.04950
0.5924 1.04063
0.5931 1.05505
0.5938 1.06118
0.5946 1.06089
0.5953 1.07195
0.5960 1.06193
0.5968 1.06402
0.5975 1.06855
0.5982 1.02997
0.5990 1.03747
0.5997 1.07500
0.6004 1.08502
0.6012 1.07389
0.6019 1.04406
0.6026 1.04757
0.6034 1.07206
0.6041 1.06774
0.6048 1.06694
0.6056 1.09084
0.6063 1.09236
0.6071 1.09365
0.6078 1.06186
0.6085 1.05782
0.6093 1.08445
0.6100 1.09050
0.6107 1.08150
0.6115 1.05156
0.6122 1.05703
0.6129 1.05820
0.6137 1.08002
0.6144 1.09490
0.6151 1.08640
0.6159 1.05684
0.6166 1.05458
0.6173 1.06518
0.6181 1.05461
0.6188 1.07523
0.6195 1.08680
0.6203 1.08714
0.6210 1.08243
0.6217 1.06997
0.6225 1.03554
0.6232 1.04438
0.6239 1.07300
0.6247 1.06850
0.6254 1.05365
0.6261 1.05445
0.6269 1.06839
0.6276 1.09636
0.6283 1.11316
0.6291 1.08405
0.6298 1.07667
0.6305 1.04767
0.6313 1.06256
0.6320 1.10681
0.6327 1.09256
0.6335 1.04492
0.6342 1.06205
0.6349 1.10801
0.6357 1.10996
0.6364 1.10700
0.6371 1.10390
0.6379 1.11227
0.6386 1.10315
0.6393 1.07769
0.6401 1.09570
0.6408 1.10144
0.6415 1.11203
0.6423 1.09487
0.6430 1.07966
0.6437 1.09118
0.6445 1.07651
0.6452 1.06258
0.6459 1.07470
0.6467 1.06857
0.6474 1.08714
0.6481 1.07892
0.6489 1.10200
0.6496 1.11895
0.6503 1.10846
0.6511 1.09650
0.6518 1.09384
0.6525 1.08765
0.6533 1.09074
0.6540 1.06688
0.6547 1.08108
0.6555 1.06545
0.6562 1.11412
0.6569 1.11705
0.6577 1.11028
0.6584 1.12597
0.6591 1.10013
0.6599 1.09884
0.6606 1.12198
0.6613 1.11847
0.6621 1.10425
0.6628 1.09567
0.6635 1.10710
0.6643 1.13238
0.6650 1.10042
0.6657 1.07471
0.6665 1.07821
0.6672 1.07661
0.6680 1.08828
0.6687 1.10111
0.6694 1.13562
0.6702 1.11649
0.6709 1.11270
0.6716 1.09463
0.6724 1.06926
0.6731 1.10341
0.6738 1.12756
0.6746 1.12186
0.6753 1.11648
0.6760 1.11688
0.6768 1.12963
0.6775 1.11620
0.6782 1.09618
0.6790 1.13761
0.6797 1.14689
0.6804 1.10472
0.6812 1.10915
0.6819 1.10020
0.6826 1.06500
0.6834 1.09287
0.6841 1.12671
0.6848 1.09944
0.6856 1.06664
0.6863 1.08419
0.6870 1.14140
0.6878 1.14761
0.6885 1.11869
0.6892 1.12991
0.6900 1.15574
0.6907 1.14938
0.6914 1.12322
0.6922 1.11805
0.6929 1.12637
0.6936 1.11573
0.6944 1.16020
0.6951 1.12350
0.6958 1.11820
0.6966 1.13588
0.6973 1.10437
0.6980 1.12076
0.6988 1.14077
0.6995 1.12294
0.7002 1.10920
0.7010 1.14181
0.7017 1.14031
0.7024 1.12100
0.7032 1.14477
0.7039 1.11832
0.7046 1.13049
0.7054 1.12566
0.7061 1.14279
0.7068 1.12441
0.7076 1.13701
0.7083 1.11421
0.7090 1.11112
0.7098 1.14554
0.7105 1.14557
0.7112 1.12040
0.7120 1.13415
0.7127 1.08137
0.7134 1.10609
0.7142 1.14495
0.7149 1.14946
0.7156 1.13936
0.7164 1.08869
0.7171 1.12491
0.7178 1.10406
0.7186 1.15477
0.7193 1.13882
0.7200 1.13415
0.7208 1.14352
0.7215 1.15670
0.7222 1.13306
0.7230 1.13882
0.7237 1.13242
0.7244 1.11126
0.7252 1.14258
0.7259 1.15815
0.7266 1.14938
0.7274 1.13609
0.7281 1.11977
0.7288 1.14853
0.7296 1.14152
0.7303 1.13063
0.7310 1.09760
0.7318 1.11734
0.7325 1.15788
0.7332 1.17057
0.7340 1.19577
0.7347 1.14168
0.7355 1.09476
0.7362 1.14202
0.7369 1.18362
0.7377 1.17940
0.7384 1.15581
0.7391 1.14149
0.7399 1.16525
0.7406 1.16626
0.7413 1.13982
0.7421 1.12510
0.7428 1.14603
0.7435 1.14156
0.7443 1.12820
0.7450 1.11549
0.7457 1.12710
0.7465 1.15214
0.7472 1.13017
0.7479 1.13419
0.7487 1.14426
0.7494 1.09792
0.7501 1.11131
0.7509 1.15915
0.7516 1.15848
0.7523 1.14405
0.7531 1.13063
0.7538 1.15375
0.7545 1.15239
0.7553 1.13121
0.7560 1.11156
0.7567 1.11009
0.7575 1.09531
0.7582 1.15375
0.7589 1.15848
0.7597 1.11317
0.7604 1.14405
0.7611 1.13728
0.7619 1.13728
0.7626 1.13252
0.7633 1.13121
0.7641 1.12740
0.7648 1.12740
0.7655 1.18153
0.7663 1.13252
0.7670 1.16984
0.7677 1.13728
0.7685 1.12537
0.7692 1.14149
0.7699 1.13252
0.7707 1.11062
0.7714 1.09332
0.7721 1.12740
0.7729 1.11163
0.7736 1.08979
0.7743 1.14149
0.7751 1.14161
0.7758 1.10534
0.7765 1.13862
0.7773 1.11287
0.7780 1.10645
0.7787 1.08898
0.7795 1.12049
0.7802 1.10768
0.7809 1.12333
0.7817 1.09307
0.7824 1.12760
0.7831 1.16158
0.7839 1.11287
0.7846 1.13480
0.7853 1.16421
0.7861 1.11646
0.7868 1.09888
0.7875 1.12018
0.7883 1.17088
0.7890 1.16772
0.7897 1.10478
0.7905 1.08394
0.7912 1.10982
0.7919 1.11854
0.7927 1.12179
0.7934 1.11684
0.7941 1.12511
0.7949 1.15279
0.7956 1.12107
0.7963 1.09679
0.7971 1.12693
0.7978 1.14172
0.7986 1.12021
0.7993 1.14011
0.8000 1.13754
0.8008 1.14433
0.8015 1.12519
0.8022 1.09350
0.8030 1.10876
0.8037 1.12932
0.8044 1.11985
0.8052 1.11022
0.8059 1.09041
0.8066 1.10979
0.8074 1.13596
0.8081 1.09961
0.8088 1.14121
0.8096 1.13624
0.8103 1.11093
0.8110 1.13417
0.8118 1.10691
0.8125 1.08451
0.8132 1.10694
0.8140 1.12609
0.8147 1.09896
0.8154 1.09961
0.8162 1.09896
0.8169 1.07693
0.8176 1.07211
0.8184 1.07562
0.8191 1.09828
0.8198 1.09146
0.8206 1.06666
0.8213 1.09699
0.8220 1.12099
0.8228 1.08382
0.8235 1.14882
0.8242 1.09562
0.8250 1.06357
0.8257 1.09576
0.8264 1.11839
0.8272 1.10210
0.8279 1.10156
0.8286 1.09639
0.8294 1.04823
0.8301 1.04455
0.8308 1.07491
0.8316 1.08227
0.8323 1.08560
0.8330 1.10441
0.8338 1.12448
0.8345 1.11034
0.8352 1.07684
0.8360 1.07461
0.8367 1.07461
0.8374 1.07313
0.8382 1.02561
0.8389 1.07461
0.8396 1.06385
0.8404 1.06385
0.8411 1.04756
0.8418 1.10993
0.8426 1.07313
0.8433 1.05099
0.8440 1.05760
0.8448 1.00555
0.8455 1.01045
0.8462 1.05760
0.8470 1.03770
0.8477 1.06278
0.8484 1.07917
0.8492 1.05760
0.8499 1.06522
0.8506 1.10284
0.8514 1.09092
0.8521 1.01851
0.8528 1.03837
0.8536 1.02486
0.8543 1.07295
0.8550 1.08228
0.8558 1.06851
0.8565 1.05374
0.8572 1.03219
0.8580 1.04523
0.8587 1.03702
0.8595 1.05613
0.8602 1.10955
0.8609 1.12041
0.8617 1.10080
0.8624 1.06224
0.8631 1.05888
0.8639 1.06352
0.8646 1.04676
0.8653 1.09276
0.8661 1.08170
0.8668 1.04775
0.8675 1.06475
0.8683 1.09126
0.8690 1.09505
0.8697 1.08716
0.8705 1.06445
0.8712 1.07229
0.8719 1.05259
0.8727 1.06024
0.8734 1.09572
0.8741 1.05646
0.8749 1.06843
0.8756 1.05646
0.8763 1.06024
0.8771 0.99717
0.8778 1.05259
0.8785 1.03773
0.8793 1.03773
0.8800 1.03770
0.8807 0.98154
0.8815 1.03773
0.8822 1.01690
0.8829 1.03773
0.8837 1.03773
0.8844 1.06790
0.8851 1.09317
0.8859 1.00778
0.8866 1.03660
0.8873 1.04609
0.8881 1.04816
0.8888 1.10981
0.8895 1.07845
0.8903 1.04816
0.8910 1.07845
0.8917 1.05142
0.8925 1.03641
0.8932 1.08118
0.8939 1.05142
0.8947 1.05425
0.8954 1.11222
0.8961 1.08305
0.8969 1.03993
0.8976 1.05425
0.8983 1.08025
0.8991 1.06166
0.8998 0.99585
0.9005 1.01390
0.9013 1.02321
0.9020 1.07747
0.9027 1.09734
0.9035 1.04161
0.9042 1.06543
0.9049 1.01033
0.9057 1.06166
0.9064 1.10545
0.9071 1.04342
0.9079 1.03107
0.9086 1.04030
0.9093 1.07111
0.9101 1.04253
0.9108 1.04856
0.9115 1.06866
0.9123 1.03334
0.9130 1.04856
0.9137 1.04687
0.9145 1.08630
0.9152 1.06057
0.9159 1.01782
0.9167 1.02242
0.9174 1.09193
0.9181 1.04919
0.9189 1.05620
0.9196 1.04356
0.9203 1.03157
0.9211 1.07501
0.9218 1.04865
0.9226 1.05113
0.9233 1.05818
0.9240 1.03623
0.9248 1.04754
0.9255 1.00811
0.9262 0.99692
0.9270 1.04755
0.9277 1.00820
0.9284 1.03623
0.9292 0.99366
0.9299 1.05112
0.9306 1.04816
0.9314 1.03623
0.9321 1.03092
0.9328 1.06493
0.9336 1.04202
0.9343 1.04755
0.9350 1.04816
0.9358 0.98992
0.9365 1.03092
0.9372 1.05112
0.9380 1.05112
0.9385 1.00431
0.9391 0.96368
0.9398 0.93630
0.9404 1.00431
0.9411 0.99776
0.9417 0.99776
0.9424 0.98823
0.9431 0.99723
0.9437 0.99723
0.9444 1.00739
0.9450 1.07351
0.9457 1.03754
0.9463 1.01167
0.9470 0.98823
0.9476 0.98998
0.9483 1.01185
0.9490 0.98756
0.9496 0.94613
0.9503 1.07695
0.9509 1.06272
0.9516 0.98823
0.9522 1.00431
0.9529 0.98823
0.9536 0.98823
0.9542 0.98823
0.9549 0.99776
0.9555 1.07346
0.9562 0.98823
0.9568 1.08370
0.9575 0.94071
0.9582 0.99723
0.9588 0.96735
0.9595 0.99776
0.9601 0.98998
0.9608 0.98574
0.9614 0.99776
0.9621 1.00103
0.9627 1.00431
0.9634 0.90433
0.9641 1.04788
0.9647 1.00431
0.9654 1.06189
0.9660 1.00103
0.9667 0.92224
0.9673 0.99776
0.9680 0.99446
0.9687 0.91119
0.9693 1.00532
0.9700 1.00532
0.9706 1.00532
0.9713 1.00532
0.9719 1.00800
0.9726 1.06679
0.9732 1.04069
0.9739 1.09064
0.9746 1.00103
0.9752 0.98178
0.9759 1.01412
0.9765 1.05342
0.9772 1.02355
0.9778 0.92006
0.9785 1.00103
0.9792 1.00103
0.9798 0.97149
0.9805 1.00103
0.9811 0.97449
0.9818 1.01425
0.9824 1.01122
0.9831 1.04049
0.9838 1.04432
0.9844 1.03166
0.9851 0.96465
0.9857 1.00246
0.9864 0.93649
0.9870 1.00572
0.9877 1.06756
0.9883 1.07848
0.9890 1.00861
0.9897 1.00246
0.9903 1.00527
0.9910 0.95172
0.9916 0.95346
0.9923 0.96559
0.9929 0.97219
0.9936 1.00103
0.9943 1.06021
0.9949 0.99156
0.9956 1.00040
0.9962 0.98566
0.9969 1.02642
0.9975 1.06030
0.9982 0.91090
0.9988 1.03131
0.9995 0.94735
1.0002 0.91375
1.0008 0.97449
1.0015 0.93850
1.0021 0.97219
1.0028 0.97219
1.0034 1.03223
1.0041 1.00527
1.0048 0.96717
1.0054 0.98829
1.0061 1.06413
1.0067 1.07889
1.0074 0.90950
1.0080 0.94828
1.0087 0.94802
1.0093 0.92784
1.0100 0.91145
1.0107 0.98077
1.0113 1.07183
1.0120 0.95803
1.0126 1.03163
1.0133 0.89932
1.0139 0.89485
1.0146 0.98829
1.0153 1.00040
1.0159 0.98566
1.0166 0.98077
1.0172 0.97799
1.0179 0.96717
1.0185 0.97799
1.0192 0.97799
1.0198 0.95573
1.0205 0.99096
1.0212 0.98829
1.0218 1.06661
1.0225 1.04804
1.0231 1.01599
1.0238 0.98829
1.0245 0.98077
1.0251 0.99267
1.0258 1.03427
1.0264 0.99247
1.0271 0.98829
1.0277 1.03723
1.0284 0.96505
1.0290 0.98077
1.0297 0.96342
1.0304 1.01444
1.0310 1.06530
1.0317 0.99104
1.0323 0.99104
1.0330 1.06522
1.0336 0.93194
1.0343 0.90610
1.0350 0.95918
1.0356 0.95501
1.0363 0.94028
1.0369 0.97799
1.0376 1.01401
1.0382 1.05334
1.0389 1.02188
1.0395 1.03954
1.0402 1.05097
1.0409 0.99104
1.0415 0.92706
1.0422 1.03685
1.0428 1.01481
1.0435 1.07341
1.0441 0.94205
1.0448 0.97032
1.0454 1.01401
1.0461 0.99214
1.0468 0.99110
1.0474 1.05371
1.0481 1.00202
1.0487 0.96222
1.0494 0.99214
1.0500 1.02955
1.0507 0.91079
1.0514 0.98813
1.0520 0.92188
1.0527 0.99104
1.0533 0.99110
1.0540 1.02347
1.0546 0.99506
1.0553 0.99214
1.0559 0.99214
1.0566 1.04802
1.0573 1.02352
1.0579 1.05469
1.0586 0.97681
1.0592 1.00202
1.0599 0.97629
1.0606 1.08409
1.0612 0.94751
1.0619 0.99110
1.0625 0.93361
1.0632 0.92274
1.0638 1.01302
1.0645 1.01302
1.0651 0.95659
1.0658 1.07659
1.0665 1.06846
1.0671 0.95718
1.0678 1.02347
1.0684 0.99908
1.0691 1.03663
1.0697 1.06431
1.0704 1.02352
1.0711 0.94318
1.0717 1.04658
1.0724 1.01302
1.0730 1.00527
1.0737 0.99506
1.0743 1.10128
1.0750 0.98898
1.0756 0.98524
1.0763 1.08971
1.0770 1.09822
1.0776 1.00527
1.0783 1.00527
1.0789 1.11122
1.0796 0.99634
1.0802 1.11225
1.0809 1.01796
1.0816 1.03768
1.0822 1.03032
1.0829 1.09987
1.0835 1.05951
1.0842 0.99781
1.0848 1.10385
1.0855 1.07547
1.0861 0.96415
1.0868 1.04141
1.0875 1.06707
1.0881 1.05964
1.0888 1.03964
1.0894 0.98508
1.0901 0.95129
1.0907 0.96818
1.0914 0.98716
1.0921 0.95691
1.0927 1.06131
1.0934 1.00462
1.0940 1.08715
1.0947 1.08555
1.0953 1.03629
1.0960 1.08031
1.0966 1.08031
1.0973 1.01796
1.0980 1.07566
1.0986 1.08100
1.0993 1.08582
1.0999 1.04787
1.1006 1.03196
1.1013 1.07566
1.1019 1.08031
1.1026 1.08100
1.1032 1.06131
1.1039 1.15054
1.1045 1.13522
1.1052 1.14862
1.1058 1.07566
1.1065 1.08031
1.1072 1.10803
1.1078 1.00223
1.1085 1.08257
1.1091 1.12930
1.1098 1.16997
1.1104 1.08100
1.1111 1.16914
1.1118 1.17340
1.1124 1.08100
1.1131 1.17487
1.1137 1.08555
1.1144 1.08555
1.1150 1.08582
1.1157 1.14239
1.1163 1.09668
1.1170 1.14496
1.1177 1.12644
1.1183 1.09548
1.1190 1.12011
1.1196 1.04497
1.1203 1.04027
1.1209 1.14517
1.1216 1.22210
1.1222 1.12644
1.1229 1.17978
1.1236 1.16158
1.1242 1.13510
1.1249 1.12930
1.1255 1.03469
1.1262 1.13510
1.1268 1.14239
1.1275 1.04533
1.1282 1.09668
1.1288 1.14517
1.1295 1.14517
1.1301 1.14496
1.1308 1.14239
1.1314 1.13510
1.1321 1.12644
1.1327 1.09548
1.1334 1.10926
1.1341 1.09761
1.1347 1.09761
1.1354 1.09668
1.1360 1.09601
1.1367 1.09601
1.1374 1.09548
1.1380 1.09548
1.1387 1.09548
1.1393 1.17049
1.1400 1.00450
1.1406 1.13510
1.1413 1.07600
1.1419 1.06758
1.1426 1.06638
1.1433 1.05008
1.1439 1.09761
1.1446 1.06758
1.1452 1.17204
1.1459 1.06758
1.1465 1.07600
1.1472 1.07600
1.1479 1.16602
1.1485 1.09601
1.1492 0.99345
1.1498 1.04546
1.1505 1.07600
1.1511 1.07782
1.1518 1.10926
1.1524 1.06638
1.1531 1.15713
1.1538 1.08692
1.1544 1.14139
1.1551 1.09761
1.1557 1.09761
1.1564 0.98890
1.1570 1.04286
1.1577 1.15600
1.1583 1.09601
1.1590 1.09761
1.1597 1.05008
1.1603 1.03810
1.1610 1.00161
1.1616 1.04135
1.1623 1.02173
1.1629 1.04015
1.1636 1.03316
1.1643 1.14725
1.1649 1.17885
1.1656 1.16911
1.1662 1.14739
1.1669 1.04794
1.1675 1.04911
1.1682 1.07800
1.1689 1.04671
1.1695 1.13316
1.1702 1.17981
1.1708 1.15850
1.1715 1.11460
1.1721 1.13269
1.1728 1.16554
1.1735 1.09353
1.1741 1.06435
1.1748 1.05409
1.1754 1.06435
1.1761 1.03722
1.1767 0.99419
1.1774 1.08650
1.1780 1.11120
1.1787 1.09449
1.1794 1.06435
1.1800 1.05409
1.1807 1.03934
1.1813 1.11207
1.1820 1.17160
1.1826 1.16583
1.1833 1.19139
1.1840 1.15285
1.1846 1.07115
1.1853 1.07295
1.1859 1.04032
1.1866 1.03343
1.1872 1.08650
1.1879 1.00283
1.1886 1.11120
1.1892 1.01015
1.1899 1.11848
1.1905 1.05039
1.1912 1.11120
1.1918 1.11120
1.1925 1.05259
1.1931 1.13361
1.1938 1.15119
1.1945 1.01613
1.1951 1.13106
1.1958 1.10890
1.1964 1.10491
1.1971 1.14402
1.1977 1.13754
1.1984 1.12611
1.1990 1.17046
1.1997 1.15445
1.2004 1.03320
1.2010 0.99627
1.2017 1.02691
1.2023 1.11996
1.2030 1.07339
1.2036 1.08650
1.2043 1.08650
1.2050 1.04482
1.2056 1.12035
1.2063 1.15077
1.2069 1.19869
1.2076 1.05739
1.2082 1.19329
1.2089 1.12229
1.2095 1.07628
1.2102 1.17353
1.2109 1.11076
1.2115 1.16014
1.2122 1.07136
1.2128 1.04545
1.2135 1.08008
1.2142 1.13332
1.2148 1.07592
1.2155 1.12462
1.2161 1.08000
1.2168 1.12611
1.2174 1.14943
1.2181 1.12611
1.2187 1.12229
1.2194 1.09918
1.2201 1.12462
1.2207 1.12462
1.2214 1.12545
1.2220 1.15159
1.2227 1.18630
1.2233 1.18863
1.2240 1.21401
1.2247 1.16742
1.2253 1.08860
1.2260 1.05117
1.2266 1.11076
1.2273 1.19167
1.2279 1.03083
1.2286 1.12769
1.2292 1.12769
1.2299 1.05772
1.2306 1.13003
1.2312 1.14311
1.2319 1.13003
1.2325 1.24334
1.2332 1.13326
1.2338 1.21842
1.2345 1.10215
1.2351 1.13326
1.2358 1.03916
1.2365 1.12769
1.2371 1.21860
1.2378 1.13003
1.2384 1.09371
1.2391 1.08662
1.2397 1.13752
1.2404 1.19052
1.2411 1.12545
1.2417 1.10324
1.2424 1.07620
1.2430 1.18498
1.2437 1.08262
1.2443 1.19356
1.2450 1.18280
1.2456 1.11252
1.2463 1.07692
1.2470 1.17600
1.2476 1.21464
1.2483 1.22765
1.2489 1.21385
1.2496 1.20177
1.2503 1.19444
1.2509 1.13500
1.2516 1.27192
1.2522 1.21984
1.2529 1.08105
1.2535 1.10663
1.2542 1.15357
1.2548 1.15463
1.2555 1.15463
1.2562 1.15703
1.2568 1.09160
1.2575 1.07109
1.2581 1.09760
1.2588 1.08986
1.2594 1.15463
1.2601 1.24670
1.2608 1.25859
1.2614 1.14983
1.2621 1.18280
1.2627 1.10061
1.2634 1.15357
1.2640 1.19747
1.2647 1.21556
1.2653 1.17247
1.2660 1.18963
1.2667 1.26026
1.2673 1.27142
1.2680 1.24453
1.2686 1.19341
1.2693 1.18284
1.2699 1.23214
1.2706 1.21872
1.2712 1.04412
1.2719 1.15703
1.2726 1.15463
1.2732 1.10441
1.2739 1.15703
1.2745 1.17247
1.2752 1.15703
1.2758 1.15463
1.2765 1.24486
1.2772 1.15357
1.2778 1.11102
1.2785 1.07451
1.2791 1.15915
1.2798 1.23496
1.2804 1.11807
1.2811 1.08892
1.2818 1.23959
1.2824 1.25391
1.2831 1.15843
1.2837 1.12721
1.2844 1.21752
1.2850 1.14020
1.2857 1.26478
1.2864 1.15894
1.2870 1.14202
1.2877 1.09948
1.2883 1.24190
1.2890 1.12526
1.2896 1.15894
1.2903 1.15894
1.2910 1.08501
1.2916 1.11004
1.2923 1.08648
1.2929 1.07615
1.2936 1.18800
1.2942 1.27636
1.2949 1.21087
1.2955 1.17267
1.2962 1.07294
1.2969 1.17267
1.2975 1.08115
1.2982 1.15894
1.2988 1.10836
1.2995 1.17092
1.3001 1.19713
1.3008 1.12544
1.3014 1.09947
1.3021 1.16591
1.3028 1.20990
1.3034 1.22305
1.3041 1.17092
1.3047 1.15477
1.3054 1.16591
1.3060 1.15894
