Asteroid designations ( Number, Name, Temporary designation): 214088, -,  K04J13N, 1975 XA, J75X00A
Observation was done on (UT) (format YYYY-MM-DD-hh): 2014 - 12 - 30 - 01:20
Observation was made by : O. Vaduvescu, F. Stevance E-mail; ovidiu.vaduvescu@gmail.com
At observatory with UAI code: 950
Obsv. comments: If this spectrum is usefull for you please contact: ovidiu.vaduvescu@gmail.com; mpopescu@imcce.fr
The spectrum was published in the article: Unpublished;Contact:mpopescu@imcce.fr
The normalization of this spectrum was made for the wavelength: 0.550 microns.
Original name of the file was: nea214088vshd283886.txt
Wavelength[um]	Reflectance	sigma(optional)
0.4402000 0.76082 0.00722
0.4406000 0.76233 0.00706
0.4410000 0.79003 0.00668
0.4414000 0.80135 0.00645
0.4418000 0.78326 0.00703
0.4422000 0.78154 0.00680
0.4426000 0.78700 0.00758
0.4430000 0.78023 0.00609
0.4435000 0.78740 0.00658
0.4439000 0.79054 0.00646
0.4443000 0.78245 0.00645
0.4447000 0.78629 0.00663
0.4451000 0.78154 0.00634
0.4455000 0.78720 0.00673
0.4459000 0.78831 0.00717
0.4463000 0.77012 0.00643
0.4467000 0.79640 0.00637
0.4471000 0.80297 0.00658
0.4475000 0.79377 0.00640
0.4479000 0.81349 0.00643
0.4483000 0.81237 0.00591
0.4487000 0.80803 0.00604
0.4491000 0.80530 0.00668
0.4495000 0.79741 0.00532
0.4499000 0.81066 0.00647
0.4504000 0.81874 0.00606
0.4508000 0.81126 0.00569
0.4512000 0.80510 0.00579
0.4516000 0.79650 0.00566
0.4520000 0.79994 0.00562
0.4524000 0.79307 0.00602
0.4528000 0.78245 0.00619
0.4532000 0.79590 0.00567
0.4536000 0.80156 0.00616
0.4540000 0.81561 0.00558
0.4544000 0.83694 0.00577
0.4548000 0.82097 0.00616
0.4552000 0.81258 0.00648
0.4556000 0.80884 0.00655
0.4560000 0.80803 0.00576
0.4564000 0.82410 0.00552
0.4569000 0.83219 0.00581
0.4573000 0.82673 0.00559
0.4577000 0.82359 0.00566
0.4581000 0.83249 0.00558
0.4585000 0.82400 0.00549
0.4589000 0.83350 0.00618
0.4593000 0.83330 0.00588
0.4597000 0.82430 0.00607
0.4601000 0.83006 0.00525
0.4605000 0.83431 0.00546
0.4609000 0.84321 0.00573
0.4613000 0.85402 0.00593
0.4617000 0.83047 0.00549
0.4621000 0.81440 0.00566
0.4625000 0.82380 0.00541
0.4629000 0.83259 0.00531
0.4634000 0.84412 0.00546
0.4638000 0.84482 0.00606
0.4642000 0.84149 0.00586
0.4646000 0.82703 0.00533
0.4650000 0.83037 0.00611
0.4654000 0.82926 0.00573
0.4658000 0.82855 0.00568
0.4662000 0.85443 0.00538
0.4666000 0.85968 0.00531
0.4670000 0.85726 0.00543
0.4674000 0.84199 0.00586
0.4678000 0.83209 0.00484
0.4682000 0.84968 0.00512
0.4686000 0.84644 0.00524
0.4690000 0.85685 0.00563
0.4695000 0.86262 0.00522
0.4699000 0.84644 0.00531
0.4703000 0.83633 0.00588
0.4707000 0.84412 0.00522
0.4711000 0.84351 0.00517
0.4715000 0.84027 0.00547
0.4719000 0.86595 0.00541
0.4723000 0.85301 0.00497
0.4727000 0.84351 0.00476
0.4731000 0.85352 0.00507
0.4735000 0.85150 0.00502
0.4739000 0.85503 0.00474
0.4743000 0.86252 0.00471
0.4747000 0.87657 0.00526
0.4751000 0.88314 0.00526
0.4755000 0.87202 0.00544
0.4760000 0.85797 0.00499
0.4764000 0.86575 0.00484
0.4768000 0.87889 0.00511
0.4772000 0.87667 0.00462
0.4776000 0.87202 0.00511
0.4780000 0.87525 0.00515
0.4784000 0.87182 0.00522
0.4788000 0.87323 0.00483
0.4792000 0.87909 0.00519
0.4796000 0.88243 0.00497
0.4800000 0.87495 0.00480
0.4804000 0.88031 0.00508
0.4808000 0.89840 0.00501
0.4812000 0.89395 0.00510
0.4816000 0.87909 0.00456
0.4821000 0.87839 0.00476
0.4825000 0.87727 0.00507
0.4829000 0.88314 0.00493
0.4833000 0.88415 0.00477
0.4837000 0.87465 0.00525
0.4841000 0.87677 0.00479
0.4845000 0.89537 0.00549
0.4849000 0.90467 0.00503
0.4853000 0.90740 0.00455
0.4857000 0.90700 0.00532
0.4861000 0.90780 0.00579
0.4865000 0.90558 0.01236
0.4869000 0.89001 0.01113
0.4873000 0.90032 0.00989
0.4878000 0.89224 0.00865
0.4882000 0.87818 0.00742
0.4886000 0.89648 0.00618
0.4890000 0.91114 0.00494
0.4894000 0.89668 0.00500
0.4898000 0.90002 0.00506
0.4902000 0.91276 0.00512
0.4906000 0.89901 0.00514
0.4910000 0.88779 0.00516
0.4914000 0.88112 0.00517
0.4918000 0.89284 0.00519
0.4922000 0.91539 0.00520
0.4926000 0.90174 0.00522
0.4930000 0.88162 0.00523
0.4934000 0.88496 0.00525
0.4939000 0.89052 0.00526
0.4943000 0.89739 0.00528
0.4947000 0.90457 0.00529
0.4951000 0.89052 0.00531
0.4955000 0.88364 0.00533
0.4959000 0.89749 0.00534
0.4963000 0.90609 0.00536
0.4967000 0.90346 0.00537
0.4971000 0.91903 0.00539
0.4975000 0.90932 0.00540
0.4979000 0.88779 0.00542
0.4983000 0.91084 0.00543
0.4987000 0.92721 0.00545
0.4991000 0.92378 0.00547
0.4996000 0.91842 0.00548
0.5000000 0.89871 0.00550
0.5004000 0.88192 0.00551
0.5008000 0.88647 0.00553
0.5012000 0.89790 0.00554
0.5016000 0.90841 0.00556
0.5020000 0.91761 0.00584
0.5024000 0.91994 0.00612
0.5028000 0.91438 0.00640
0.5032000 0.90477 0.00668
0.5036000 0.91266 0.00696
0.5040000 0.93571 0.00723
0.5044000 0.92863 0.00751
0.5048000 0.91438 0.00779
0.5053000 0.91033 0.00807
0.5057000 0.91478 0.00835
0.5061000 0.92337 0.00863
0.5065000 0.91549 0.00891
0.5069000 0.89881 0.00919
0.5073000 0.91053 0.01041
0.5077000 0.91235 0.01164
0.5081000 0.89092 0.01286
0.5085000 0.90123 0.01408
0.5089000 0.91448 0.01530
0.5093000 0.91438 0.01653
0.5097000 0.91357 0.01589
0.5101000 0.91488 0.01525
0.5105000 0.92732 0.01462
0.5110000 0.93732 0.01398
0.5114000 0.93571 0.01335
0.5118000 0.92913 0.01271
0.5122000 0.92004 0.01207
0.5126000 0.92327 0.01144
0.5130000 0.92499 0.01080
0.5134000 0.91286 0.01016
0.5138000 0.92651 0.00953
0.5142000 0.93975 0.00889
0.5146000 0.92165 0.00825
0.5150000 0.92145 0.00762
0.5154000 0.93368 0.00698
0.5158000 0.92196 0.00634
0.5162000 0.90922 0.00571
0.5167000 0.90973 0.00507
0.5171000 0.92913 0.00503
0.5175000 0.93682 0.00559
0.5179000 0.91903 0.00529
0.5183000 0.92772 0.00500
0.5187000 0.95026 0.00470
0.5191000 0.95815 0.00440
0.5195000 0.96583 0.00442
0.5199000 0.96593 0.00448
0.5203000 0.96836 0.00442
0.5207000 0.97068 0.00435
0.5211000 0.96502 0.00428
0.5215000 0.96816 0.00421
0.5220000 0.95643 0.00476
0.5224000 0.96320 0.00435
0.5228000 0.96452 0.00416
0.5232000 0.95158 0.00411
0.5236000 0.97271 0.00441
0.5240000 0.98474 0.00409
0.5244000 0.97918 0.00424
0.5248000 0.97766 0.00416
0.5252000 0.98160 0.00424
0.5256000 0.97463 0.00434
0.5260000 0.95926 0.00453
0.5264000 0.95461 0.00463
0.5268000 0.95855 0.00471
0.5273000 0.95916 0.00423
0.5277000 0.97432 0.00420
0.5281000 0.98605 0.00429
0.5285000 0.97422 0.00401
0.5289000 0.95977 0.00385
0.5293000 0.96624 0.00399
0.5297000 0.98251 0.00382
0.5301000 0.98969 0.00442
0.5305000 0.98221 0.00365
0.5309000 0.97816 0.00417
0.5313000 0.97503 0.00443
0.5317000 0.96998 0.00391
0.5321000 0.96694 0.00389
0.5325000 0.96664 0.00442
0.5330000 0.97766 0.00385
0.5334000 0.98827 0.00407
0.5338000 0.98797 0.00441
0.5342000 0.98645 0.00401
0.5346000 0.99121 0.00411
0.5350000 0.99596 0.00407
0.5354000 0.98939 0.00401
0.5358000 0.98160 0.00436
0.5362000 0.97968 0.00367
0.5366000 0.98605 0.00427
0.5370000 0.99687 0.00416
0.5374000 0.99019 0.00409
0.5378000 0.98089 0.00401
0.5383000 0.98595 0.00444
0.5387000 1.00404 0.00402
0.5391000 1.00556 0.00453
0.5395000 1.00071 0.00433
0.5399000 0.97928 0.00416
0.5403000 0.97786 0.00397
0.5407000 0.98393 0.00415
0.5411000 0.98605 0.00436
0.5415000 1.00859 0.00424
0.5419000 1.00364 0.00397
0.5423000 0.99434 0.00438
0.5427000 0.99282 0.00413
0.5432000 0.99626 0.00371
0.5436000 1.00182 0.00402
0.5440000 0.99838 0.00373
0.5444000 0.99373 0.00443
0.5448000 0.99737 0.00435
0.5452000 1.00768 0.00357
0.5456000 1.01163 0.00432
0.5460000 1.00839 0.00398
0.5464000 1.01203 0.00395
0.5468000 1.00728 0.00405
0.5472000 1.00505 0.00413
0.5476000 1.02416 0.00456
0.5480000 1.01506 0.00445
0.5485000 0.99515 0.00397
0.5489000 1.00273 0.00368
0.5493000 1.01061 0.00419
0.5497000 1.01061 0.00446
0.5501000 1.00000 0.00450
0.5505000 1.00698 0.00423
0.5509000 1.02820 0.00437
0.5513000 1.01719 0.00384
0.5517000 1.00728 0.00398
0.5521000 1.00516 0.00398
0.5525000 1.00970 0.00391
0.5529000 1.02305 0.00414
0.5534000 1.01567 0.00429
0.5538000 1.00940 0.00407
0.5542000 1.01577 0.00416
0.5546000 1.03013 0.00401
0.5550000 1.02659 0.00385
0.5554000 1.01274 0.00383
0.5558000 1.02285 0.00450
0.5562000 1.02709 0.00400
0.5566000 1.02042 0.00440
0.5570000 1.01901 0.00585
0.5574000 1.02800 0.00637
0.5578000 1.02871 0.00603
0.5582000 1.02335 0.00585
0.5591000 1.01810 0.00406
0.5595000 1.01274 0.00393
0.5599000 1.02093 0.00416
0.5603000 1.03366 0.00436
0.5607000 1.03528 0.00389
0.5611000 1.02992 0.00420
0.5615000 1.03649 0.00428
0.5619000 1.03366 0.00399
0.5623000 1.02275 0.00403
0.5627000 1.03144 0.00423
0.5631000 1.03366 0.00402
0.5636000 1.04145 0.00410
0.5640000 1.04044 0.00366
0.5644000 1.01921 0.00419
0.5648000 1.02790 0.00389
0.5652000 1.03245 0.00434
0.5656000 1.02740 0.00419
0.5660000 1.04205 0.00340
0.5664000 1.05641 0.00454
0.5668000 1.05560 0.00404
0.5672000 1.05691 0.00392
0.5676000 1.04145 0.00375
0.5680000 1.03579 0.00432
0.5685000 1.04165 0.00397
0.5689000 1.02841 0.00369
0.5693000 1.03083 0.00425
0.5697000 1.02932 0.00378
0.5701000 1.02800 0.00412
0.5705000 1.03882 0.00416
0.5709000 1.04590 0.00415
0.5713000 1.05894 0.00390
0.5717000 1.05914 0.00383
0.5721000 1.05439 0.00409
0.5725000 1.06500 0.00397
0.5729000 1.06611 0.00409
0.5734000 1.04539 0.00406
0.5738000 1.03427 0.00382
0.5742000 1.04529 0.00394
0.5746000 1.05287 0.00410
0.5750000 1.05358 0.00386
0.5754000 1.05954 0.00426
0.5758000 1.06177 0.00428
0.5762000 1.05105 0.00369
0.5766000 1.05044 0.00378
0.5770000 1.04984 0.00414
0.5774000 1.05226 0.00382
0.5778000 1.06894 0.00402
0.5783000 1.05995 0.00409
0.5787000 1.06349 0.00401
0.5791000 1.08047 0.00367
0.5795000 1.06409 0.00381
0.5799000 1.05055 0.00367
0.5803000 1.05237 0.00376
0.5807000 1.04711 0.00379
0.5811000 1.04842 0.00379
0.5815000 1.06349 0.00409
0.5819000 1.07218 0.00407
0.5823000 1.06278 0.00369
0.5828000 1.05954 0.00391
0.5832000 1.06611 0.00393
0.5836000 1.06803 0.00415
0.5840000 1.06632 0.00417
0.5844000 1.06510 0.00427
0.5848000 1.06965 0.00363
0.5852000 1.06773 0.00370
0.5856000 1.07319 0.00408
0.5860000 1.07036 0.00395
0.5864000 1.07936 0.00420
0.5868000 1.08724 0.00366
0.5872000 1.08482 0.00404
0.5877000 1.08714 0.00367
0.5881000 1.06945 0.00441
0.5885000 1.04842 0.00586
0.5889000 1.04873 0.00652
0.5893000 1.07380 0.00606
0.5897000 1.08118 0.00549
0.5901000 1.08451 0.00437
0.5905000 1.09958 0.00401
0.5909000 1.09563 0.00415
0.5913000 1.07723 0.00415
0.5917000 1.08421 0.00407
0.5922000 1.08583 0.00397
0.5926000 1.07986 0.00397
0.5930000 1.08856 0.00403
0.5934000 1.07764 0.00363
0.5938000 1.07825 0.00397
0.5942000 1.08906 0.00426
0.5946000 1.08188 0.00409
0.5950000 1.08017 0.00401
0.5954000 1.07380 0.00427
0.5958000 1.06450 0.00392
0.5962000 1.07713 0.00358
0.5967000 1.09199 0.00381
0.5971000 1.08249 0.00381
0.5975000 1.07319 0.00389
0.5979000 1.07471 0.00406
0.5983000 1.07248 0.00430
0.5987000 1.07804 0.00345
0.5991000 1.10079 0.00393
0.5995000 1.09674 0.00369
0.5999000 1.09159 0.00398
0.6003000 1.09947 0.00408
0.6007000 1.08694 0.00449
0.6011000 1.08057 0.00388
0.6016000 1.08381 0.00419
0.6020000 1.07380 0.00411
0.6024000 1.07946 0.00369
0.6028000 1.10119 0.00376
0.6032000 1.09634 0.00395
0.6036000 1.09533 0.00379
0.6040000 1.10453 0.00470
0.6044000 1.10332 0.00397
0.6048000 1.09331 0.00386
0.6052000 1.09887 0.00395
0.6056000 1.10503 0.00399
0.6061000 1.11353 0.00355
0.6065000 1.12980 0.00372
0.6069000 1.11777 0.00405
0.6073000 1.10180 0.00378
0.6077000 1.10291 0.00387
0.6081000 1.09472 0.00393
0.6085000 1.10352 0.00393
0.6089000 1.10635 0.00389
0.6093000 1.08775 0.00421
0.6097000 1.09968 0.00407
0.6101000 1.11464 0.00382
0.6106000 1.11868 0.00410
0.6110000 1.10524 0.00394
0.6114000 1.09674 0.00391
0.6118000 1.10220 0.00393
0.6122000 1.10089 0.00436
0.6126000 1.09361 0.00404
0.6130000 1.09412 0.00393
0.6134000 1.10918 0.00395
0.6138000 1.11878 0.00389
0.6142000 1.10150 0.00391
0.6146000 1.09856 0.00417
0.6151000 1.10150 0.00408
0.6155000 1.09412 0.00433
0.6159000 1.10503 0.00439
0.6163000 1.11049 0.00455
0.6167000 1.10888 0.00412
0.6171000 1.10847 0.00397
0.6175000 1.10867 0.00413
0.6179000 1.10271 0.00389
0.6183000 1.08350 0.00406
0.6187000 1.09209 0.00368
0.6192000 1.12657 0.00375
0.6196000 1.12343 0.00444
0.6200000 1.12727 0.00361
0.6204000 1.12505 0.00410
0.6208000 1.10352 0.00422
0.6212000 1.10877 0.00379
0.6216000 1.11373 0.00406
0.6220000 1.11939 0.00442
0.6224000 1.12556 0.00419
0.6228000 1.11706 0.00443
0.6232000 1.11747 0.00429
0.6237000 1.12232 0.00465
0.6241000 1.12889 0.00447
0.6245000 1.12748 0.00413
0.6249000 1.12353 0.00424
0.6253000 1.12404 0.00400
0.6257000 1.12141 0.00447
0.6261000 1.12717 0.00413
0.6265000 1.12394 0.00420
0.6269000 1.12525 0.00376
0.6273000 1.12788 0.00439
0.6277000 1.13101 0.00447
0.6282000 1.13354 0.00459
0.6286000 1.12677 0.00448
0.6290000 1.12839 0.00412
0.6294000 1.14193 0.00519
0.6298000 1.14941 0.00554
0.6302000 1.14274 0.00594
0.6306000 1.12970 0.00483
0.6310000 1.13051 0.00426
0.6314000 1.14527 0.00410
0.6318000 1.13455 0.00415
0.6323000 1.11474 0.00380
0.6327000 1.10999 0.00428
0.6331000 1.11433 0.00382
0.6335000 1.11696 0.00414
0.6339000 1.10867 0.00416
0.6343000 1.12869 0.00422
0.6347000 1.15002 0.00442
0.6351000 1.13890 0.00440
0.6355000 1.14830 0.00396
0.6359000 1.16973 0.00481
0.6363000 1.15598 0.00457
0.6368000 1.14860 0.00479
0.6372000 1.15629 0.00405
0.6376000 1.14486 0.00409
0.6380000 1.13091 0.00408
0.6384000 1.13051 0.00403
0.6388000 1.13910 0.00403
0.6392000 1.13637 0.00400
0.6396000 1.14800 0.00407
0.6400000 1.16225 0.00401
0.6404000 1.14476 0.00373
0.6409000 1.13759 0.00385
0.6413000 1.14032 0.00422
0.6417000 1.13920 0.00393
0.6421000 1.15235 0.00412
0.6425000 1.16245 0.00379
0.6429000 1.15588 0.00429
0.6433000 1.14325 0.00413
0.6437000 1.14052 0.00354
0.6441000 1.13880 0.00417
0.6445000 1.13223 0.00416
0.6450000 1.14780 0.00422
0.6454000 1.16872 0.00414
0.6458000 1.16296 0.00414
0.6462000 1.14850 0.00436
0.6466000 1.15032 0.00422
0.6470000 1.15750 0.00424
0.6474000 1.17630 0.00421
0.6478000 1.16397 0.00412
0.6482000 1.13627 0.00416
0.6486000 1.14517 0.00375
0.6491000 1.16852 0.00429
0.6495000 1.17843 0.00424
0.6499000 1.18004 0.00463
0.6503000 1.17539 0.00442
0.6507000 1.16397 0.00404
0.6511000 1.16630 0.00470
0.6515000 1.17924 0.00390
0.6519000 1.17701 0.00376
0.6523000 1.16266 0.00419
0.6527000 1.15801 0.00434
0.6532000 1.16104 0.00424
0.6536000 1.16407 0.00415
0.6540000 1.16559 0.00449
0.6544000 1.18500 0.00444
0.6548000 1.19450 0.00454
0.6552000 1.17742 0.00516
0.6556000 1.16559 0.00518
0.6560000 1.19844 0.00501
0.6564000 1.19976 0.00475
0.6568000 1.20097 0.00471
0.6573000 1.15305 0.00444
0.6577000 1.15214 0.00436
0.6581000 1.16761 0.00464
0.6585000 1.16983 0.00406
0.6589000 1.17256 0.00389
0.6593000 1.17560 0.00403
0.6597000 1.18914 0.00432
0.6601000 1.18662 0.00432
0.6605000 1.18257 0.00396
0.6609000 1.17681 0.00396
0.6614000 1.16812 0.00396
0.6618000 1.18075 0.00396
0.6622000 1.17822 0.00396
0.6626000 1.16175 0.00396
0.6630000 1.16448 0.00408
0.6634000 1.18237 0.00445
0.6638000 1.19410 0.00396
0.6642000 1.19612 0.00429
0.6646000 1.18217 0.00422
0.6650000 1.17186 0.00404
0.6655000 1.17580 0.00371
0.6659000 1.17620 0.00405
0.6663000 1.17641 0.00374
0.6667000 1.16347 0.00417
0.6671000 1.15376 0.00426
0.6675000 1.18075 0.00415
0.6679000 1.18318 0.00410
0.6683000 1.16630 0.00389
0.6687000 1.16801 0.00433
0.6691000 1.15689 0.00406
0.6696000 1.15770 0.00429
0.6700000 1.18288 0.00410
0.6704000 1.20208 0.00452
0.6708000 1.18672 0.00387
0.6712000 1.16791 0.00369
0.6716000 1.18186 0.00401
0.6720000 1.18985 0.00409
0.6724000 1.18833 0.00402
0.6728000 1.19056 0.00407
0.6732000 1.18560 0.00375
0.6737000 1.18884 0.00403
0.6741000 1.18934 0.00410
0.6745000 1.18591 0.00473
0.6749000 1.18126 0.00423
0.6753000 1.17802 0.00388
0.6757000 1.18631 0.00394
0.6761000 1.19268 0.00444
0.6765000 1.18945 0.00402
0.6769000 1.18399 0.00383
0.6774000 1.17903 0.00402
0.6778000 1.15871 0.00376
0.6782000 1.17539 0.00417
0.6786000 1.20481 0.00425
0.6790000 1.20228 0.00403
0.6794000 1.19036 0.00390
0.6798000 1.19116 0.00433
0.6802000 1.20309 0.00421
0.6806000 1.19430 0.00404
0.6810000 1.18469 0.00403
0.6815000 1.18126 0.00424
0.6819000 1.18753 0.00446
0.6823000 1.19541 0.00471
0.6827000 1.18692 0.00484
0.6831000 1.19046 0.00488
0.6835000 1.21684 0.00485
0.6839000 1.22099 0.00433
0.6843000 1.19915 0.00413
0.6847000 1.18985 0.00426
0.6852000 1.19703 0.00426
0.6856000 1.18186 0.00507
0.6860000 1.15730 0.00493
0.6864000 1.17266 0.00583
0.6868000 1.20764 0.00575
0.6872000 1.21785 0.00456
0.6876000 1.21462 0.00465
0.6880000 1.20431 0.00466
0.6884000 1.20562 0.00436
0.6888000 1.21027 0.00475
0.6893000 1.21795 0.00454
0.6897000 1.21239 0.00482
0.6901000 1.20228 0.00490
0.6905000 1.19976 0.00475
0.6909000 1.19531 0.00482
0.6913000 1.20148 0.00474
0.6917000 1.20997 0.00455
0.6921000 1.20875 0.00489
0.6925000 1.19430 0.00519
0.6930000 1.20683 0.00467
0.6934000 1.23534 0.00481
0.6938000 1.21836 0.00455
0.6942000 1.21987 0.00479
0.6946000 1.22988 0.00432
0.6950000 1.20562 0.00471
0.6954000 1.20239 0.00423
0.6958000 1.20734 0.00438
0.6962000 1.20906 0.00457
0.6967000 1.21533 0.00450
0.6971000 1.20491 0.00451
0.6975000 1.19885 0.00523
0.6979000 1.22877 0.00457
0.6983000 1.23484 0.00430
0.6987000 1.22857 0.00449
0.6991000 1.22473 0.00463
0.6995000 1.21209 0.00468
0.6999000 1.22038 0.00471
0.7003000 1.22281 0.00485
0.7008000 1.21472 0.00482
0.7012000 1.23099 0.00434
0.7016000 1.23089 0.00509
0.7020000 1.22645 0.00464
0.7024000 1.23130 0.00478
0.7028000 1.22058 0.00469
0.7032000 1.21209 0.00465
0.7036000 1.22281 0.00480
0.7040000 1.22503 0.00444
0.7045000 1.21472 0.00423
0.7049000 1.22968 0.00496
0.7053000 1.23524 0.00475
0.7057000 1.22766 0.00432
0.7061000 1.22998 0.00474
0.7065000 1.24757 0.00467
0.7069000 1.24747 0.00441
0.7073000 1.22341 0.00482
0.7077000 1.21270 0.00477
0.7082000 1.22058 0.00442
0.7086000 1.23140 0.00461
0.7090000 1.24040 0.00437
0.7094000 1.23979 0.00470
0.7098000 1.23211 0.00450
0.7102000 1.22119 0.00472
0.7106000 1.22463 0.00471
0.7110000 1.22736 0.00473
0.7114000 1.23019 0.00483
0.7119000 1.23504 0.00462
0.7123000 1.23221 0.00435
0.7127000 1.22918 0.00448
0.7131000 1.22837 0.00481
0.7135000 1.23261 0.00493
0.7139000 1.22806 0.00481
0.7143000 1.23059 0.00488
0.7147000 1.21836 0.00458
0.7151000 1.21462 0.00438
0.7156000 1.23918 0.00472
0.7160000 1.24616 0.00462
0.7164000 1.22907 0.00483
0.7168000 1.21866 0.00504
0.7172000 1.23949 0.00456
0.7176000 1.23474 0.00519
0.7180000 1.20592 0.00515
0.7184000 1.21826 0.00525
0.7188000 1.23736 0.00472
0.7193000 1.25576 0.00563
0.7197000 1.26203 0.00459
0.7201000 1.24970 0.00498
0.7205000 1.23736 0.00523
0.7209000 1.23443 0.00499
0.7213000 1.25859 0.00518
0.7217000 1.25859 0.00488
0.7221000 1.24030 0.00479
0.7225000 1.23463 0.00513
0.7230000 1.24545 0.00509
0.7234000 1.25404 0.00540
0.7238000 1.24869 0.00667
0.7242000 1.25819 0.00720
0.7246000 1.23858 0.00644
0.7250000 1.23403 0.00588
0.7254000 1.24656 0.00547
0.7258000 1.22806 0.00471
0.7262000 1.24060 0.00536
0.7267000 1.25960 0.00524
0.7271000 1.25030 0.00654
0.7275000 1.25516 0.00676
0.7279000 1.26425 0.00664
0.7283000 1.24242 0.00593
0.7287000 1.24818 0.00614
0.7291000 1.25323 0.00580
0.7295000 1.23514 0.00543
0.7299000 1.24697 0.00496
0.7304000 1.25445 0.00503
0.7308000 1.25040 0.00569
0.7312000 1.23190 0.00608
0.7316000 1.23676 0.00586
0.7320000 1.22948 0.00579
0.7324000 1.23888 0.00542
0.7328000 1.25414 0.00551
0.7332000 1.24424 0.00590
0.7337000 1.23635 0.00642
0.7341000 1.22564 0.00587
0.7345000 1.23726 0.00598
0.7349000 1.24030 0.00503
0.7353000 1.24181 0.00559
0.7357000 1.26092 0.00560
0.7361000 1.24808 0.00619
0.7365000 1.22624 0.00602
0.7369000 1.23352 0.00554
0.7374000 1.23858 0.00608
0.7378000 1.22715 0.00481
0.7382000 1.22412 0.00485
0.7386000 1.24121 0.00552
0.7390000 1.24141 0.00520
0.7394000 1.24636 0.00597
0.7398000 1.25667 0.00659
0.7402000 1.24929 0.00559
0.7406000 1.23504 0.00578
0.7411000 1.24848 0.00487
0.7415000 1.25910 0.00484
0.7419000 1.23949 0.00462
0.7423000 1.22806 0.00522
0.7427000 1.24272 0.00527
0.7431000 1.24292 0.00489
0.7435000 1.23817 0.00573
0.7439000 1.25698 0.00513
